ENVI
description = {
  New spectral library file [Sat Dec 4 16:15:58 2010]}
samples = 1949
lines   = 1
bands   = 1
header offset = 0
file type = ENVI Spectral Library
data type = 5
interleave = bsq
sensor type = Unknown
byte order = 0
wavelength units = Micrometers
z plot titles = {, Value}
band names = {
 Spectral Library}
spectra names = {
 solar}
wavelength = {
  0.199500,  0.200500,  0.201500,  0.202500,  0.203500,  0.204500,  0.205500,
  0.206500,  0.207500,  0.208500,  0.209500,  0.210500,  0.211500,  0.212500,
  0.213500,  0.214500,  0.215500,  0.216500,  0.217500,  0.218500,  0.219500,
  0.220500,  0.221500,  0.222500,  0.223500,  0.224500,  0.225500,  0.226500,
  0.227500,  0.228500,  0.229500,  0.230500,  0.231500,  0.232500,  0.233500,
  0.234500,  0.235500,  0.236500,  0.237500,  0.238500,  0.239500,  0.240500,
  0.241500,  0.242500,  0.243500,  0.244500,  0.245500,  0.246500,  0.247500,
  0.248500,  0.249500,  0.250500,  0.251500,  0.252500,  0.253500,  0.254500,
  0.255500,  0.256500,  0.257500,  0.258500,  0.259500,  0.260500,  0.261500,
  0.262500,  0.263500,  0.264500,  0.265500,  0.266500,  0.267500,  0.268500,
  0.269500,  0.270500,  0.271500,  0.272500,  0.273500,  0.274500,  0.275500,
  0.276500,  0.277500,  0.278500,  0.279500,  0.280500,  0.281500,  0.282500,
  0.283500,  0.284500,  0.285500,  0.286500,  0.287500,  0.288500,  0.289500,
  0.290500,  0.291500,  0.292500,  0.293500,  0.294500,  0.295500,  0.296500,
  0.297500,  0.298500,  0.299500,  0.300500,  0.301500,  0.302500,  0.303500,
  0.304500,  0.305500,  0.306500,  0.307500,  0.308500,  0.309500,  0.310000,
  0.310400,  0.310800,  0.311200,  0.311600,  0.312000,  0.312400,  0.312800,
  0.313200,  0.313600,  0.314000,  0.314400,  0.314800,  0.315200,  0.315600,
  0.316000,  0.316400,  0.316800,  0.317200,  0.317600,  0.318000,  0.318400,
  0.318800,  0.319200,  0.319600,  0.320000,  0.320400,  0.320800,  0.321200,
  0.321600,  0.322000,  0.322400,  0.322800,  0.323200,  0.323600,  0.324000,
  0.324400,  0.324800,  0.325200,  0.325600,  0.326000,  0.326400,  0.326800,
  0.327200,  0.327600,  0.328000,  0.328400,  0.328800,  0.329200,  0.329600,
  0.330000,  0.330400,  0.330500,  0.331500,  0.332500,  0.333500,  0.334500,
  0.335500,  0.336500,  0.337500,  0.338500,  0.339500,  0.340500,  0.341500,
  0.342500,  0.343500,  0.344500,  0.345500,  0.346500,  0.347500,  0.348500,
  0.349500,  0.350500,  0.351500,  0.352500,  0.353500,  0.354500,  0.355500,
  0.356500,  0.357500,  0.358500,  0.359500,  0.360500,  0.361500,  0.362500,
  0.363500,  0.364500,  0.365500,  0.366500,  0.367500,  0.368500,  0.369500,
  0.370500,  0.371500,  0.372500,  0.373500,  0.374500,  0.375500,  0.376500,
  0.377500,  0.378500,  0.379500,  0.380500,  0.381500,  0.382500,  0.383500,
  0.384500,  0.385500,  0.386500,  0.387500,  0.388500,  0.389500,  0.390500,
  0.391500,  0.392500,  0.393500,  0.394500,  0.395500,  0.396500,  0.397500,
  0.398500,  0.399500,  0.400500,  0.401500,  0.402500,  0.403500,  0.404500,
  0.405500,  0.406500,  0.407500,  0.408500,  0.409500,  0.410500,  0.411500,
  0.412500,  0.413500,  0.414500,  0.415500,  0.416500,  0.417500,  0.418500,
  0.419500,  0.420500,  0.421500,  0.422500,  0.423500,  0.424500,  0.425500,
  0.426500,  0.427500,  0.428500,  0.429500,  0.430500,  0.431500,  0.432500,
  0.433500,  0.434500,  0.435500,  0.436500,  0.437500,  0.438500,  0.439500,
  0.440500,  0.441500,  0.442500,  0.443500,  0.444500,  0.445500,  0.446500,
  0.447500,  0.448500,  0.449500,  0.450500,  0.451500,  0.452500,  0.453500,
  0.454500,  0.455500,  0.456500,  0.457500,  0.458500,  0.459500,  0.460500,
  0.461500,  0.462500,  0.463500,  0.464500,  0.465500,  0.466500,  0.467500,
  0.468500,  0.469500,  0.470500,  0.471500,  0.472500,  0.473500,  0.474500,
  0.475500,  0.476500,  0.477500,  0.478500,  0.479500,  0.480500,  0.481500,
  0.482500,  0.483500,  0.484500,  0.485500,  0.486500,  0.487500,  0.488500,
  0.489500,  0.490500,  0.491500,  0.492500,  0.493500,  0.494500,  0.495500,
  0.496500,  0.497500,  0.498500,  0.499500,  0.500500,  0.501500,  0.502500,
  0.503500,  0.504500,  0.505500,  0.506500,  0.507500,  0.508500,  0.509500,
  0.510500,  0.511500,  0.512500,  0.513500,  0.514500,  0.515500,  0.516500,
  0.517500,  0.518500,  0.519500,  0.520500,  0.521500,  0.522500,  0.523500,
  0.524500,  0.525500,  0.526500,  0.527500,  0.528500,  0.529500,  0.530500,
  0.531500,  0.532500,  0.533500,  0.534500,  0.535500,  0.536500,  0.537500,
  0.538500,  0.539500,  0.540500,  0.541500,  0.542500,  0.543500,  0.544500,
  0.545500,  0.546500,  0.547500,  0.548500,  0.549500,  0.550500,  0.551500,
  0.552500,  0.553500,  0.554500,  0.555500,  0.556500,  0.557500,  0.558500,
  0.559500,  0.560500,  0.561500,  0.562500,  0.563500,  0.564500,  0.565500,
  0.566500,  0.567500,  0.568500,  0.569500,  0.570500,  0.571500,  0.572500,
  0.573500,  0.574500,  0.575500,  0.576500,  0.577500,  0.578500,  0.579500,
  0.580500,  0.581500,  0.582500,  0.583500,  0.584500,  0.585500,  0.586500,
  0.587500,  0.588500,  0.589500,  0.590500,  0.591500,  0.592500,  0.593500,
  0.594500,  0.595500,  0.596500,  0.597500,  0.598500,  0.599500,  0.600500,
  0.601500,  0.602500,  0.603500,  0.604500,  0.605500,  0.606500,  0.607500,
  0.608500,  0.609500,  0.610500,  0.611500,  0.612500,  0.613500,  0.614500,
  0.615500,  0.616500,  0.617500,  0.618500,  0.619500,  0.620500,  0.621500,
  0.622500,  0.623500,  0.624500,  0.625500,  0.626500,  0.627500,  0.628500,
  0.629500,  0.631000,  0.633000,  0.635000,  0.637000,  0.639000,  0.641000,
  0.643000,  0.645000,  0.647000,  0.649000,  0.651000,  0.653000,  0.655000,
  0.657000,  0.659000,  0.661000,  0.663000,  0.665000,  0.667000,  0.669000,
  0.671000,  0.673000,  0.675000,  0.677000,  0.679000,  0.681000,  0.683000,
  0.685000,  0.687000,  0.689000,  0.691000,  0.693000,  0.695000,  0.697000,
  0.699000,  0.701000,  0.703000,  0.705000,  0.707000,  0.709000,  0.711000,
  0.713000,  0.715000,  0.717000,  0.719000,  0.721000,  0.723000,  0.725000,
  0.727000,  0.729000,  0.731000,  0.733000,  0.735000,  0.737000,  0.739000,
  0.741000,  0.743000,  0.745000,  0.747000,  0.749000,  0.751000,  0.753000,
  0.755000,  0.757000,  0.759000,  0.761000,  0.763000,  0.765000,  0.767000,
  0.769000,  0.771000,  0.773000,  0.775000,  0.777000,  0.779000,  0.781000,
  0.783000,  0.785000,  0.787000,  0.789000,  0.791000,  0.793000,  0.795000,
  0.797000,  0.799000,  0.801000,  0.803000,  0.805000,  0.807000,  0.809000,
  0.811000,  0.813000,  0.815000,  0.817000,  0.819000,  0.821000,  0.823000,
  0.825000,  0.827000,  0.829000,  0.831000,  0.833000,  0.835000,  0.837000,
  0.839000,  0.841000,  0.843000,  0.845000,  0.847000,  0.849000,  0.851000,
  0.853000,  0.855000,  0.857000,  0.859000,  0.861000,  0.863000,  0.865000,
  0.867000,  0.869000,  0.871000,  0.873000,  0.875000,  0.877000,  0.879000,
  0.881000,  0.883000,  0.885000,  0.887000,  0.889000,  0.891000,  0.893000,
  0.895000,  0.897000,  0.899000,  0.901000,  0.903000,  0.905000,  0.907000,
  0.909000,  0.911000,  0.913000,  0.915000,  0.917000,  0.919000,  0.921000,
  0.923000,  0.925000,  0.927000,  0.929000,  0.931000,  0.933000,  0.935000,
  0.937000,  0.939000,  0.941000,  0.943000,  0.945000,  0.947000,  0.949000,
  0.951000,  0.953000,  0.955000,  0.957000,  0.959000,  0.961000,  0.963000,
  0.965000,  0.967000,  0.969000,  0.971000,  0.973000,  0.975000,  0.977000,
  0.979000,  0.981000,  0.983000,  0.985000,  0.987000,  0.989000,  0.991000,
  0.993000,  0.995000,  0.997000,  0.999000,  1.002500,  1.007500,  1.012500,
  1.017500,  1.022500,  1.027500,  1.032500,  1.037500,  1.042500,  1.047500,
  1.052500,  1.057500,  1.062500,  1.067500,  1.072500,  1.077500,  1.082500,
  1.087500,  1.092500,  1.097500,  1.102500,  1.107500,  1.112500,  1.117500,
  1.122500,  1.127500,  1.132500,  1.137500,  1.142500,  1.147500,  1.152500,
  1.157500,  1.162500,  1.167500,  1.172500,  1.177500,  1.182500,  1.187500,
  1.192500,  1.197500,  1.202500,  1.207500,  1.212500,  1.217500,  1.222500,
  1.227500,  1.232500,  1.237500,  1.242500,  1.247500,  1.252500,  1.257500,
  1.262500,  1.267500,  1.272500,  1.277500,  1.282500,  1.287500,  1.292500,
  1.297500,  1.302500,  1.307500,  1.312500,  1.317500,  1.322500,  1.327500,
  1.332500,  1.337500,  1.342500,  1.347500,  1.352500,  1.357500,  1.362500,
  1.367500,  1.372500,  1.377500,  1.382500,  1.387500,  1.392500,  1.397500,
  1.402500,  1.407500,  1.412500,  1.417500,  1.422500,  1.427500,  1.432500,
  1.437500,  1.442500,  1.447500,  1.452500,  1.457500,  1.462500,  1.467500,
  1.472500,  1.477500,  1.482500,  1.487500,  1.492500,  1.497500,  1.502500,
  1.507500,  1.512500,  1.517500,  1.522500,  1.527500,  1.532500,  1.537500,
  1.542500,  1.547500,  1.552500,  1.557500,  1.562500,  1.567500,  1.572500,
  1.577500,  1.582500,  1.587500,  1.592500,  1.597500,  1.602500,  1.607500,
  1.612500,  1.617500,  1.622500,  1.627500,  1.632500,  1.637500,  1.642500,
  1.647500,  1.652500,  1.657500,  1.662500,  1.667500,  1.672500,  1.677500,
  1.682500,  1.687500,  1.692500,  1.697500,  1.702500,  1.707500,  1.712500,
  1.717500,  1.722500,  1.727500,  1.732500,  1.737500,  1.742500,  1.747500,
  1.752500,  1.757500,  1.762500,  1.767500,  1.772500,  1.777500,  1.782500,
  1.787500,  1.792500,  1.797500,  1.802500,  1.807500,  1.812500,  1.817500,
  1.822500,  1.827500,  1.832500,  1.837500,  1.842500,  1.847500,  1.852500,
  1.857500,  1.862500,  1.867500,  1.872500,  1.877500,  1.882500,  1.887500,
  1.892500,  1.897500,  1.902500,  1.907500,  1.912500,  1.917500,  1.922500,
  1.927500,  1.932500,  1.937500,  1.942500,  1.947500,  1.952500,  1.957500,
  1.962500,  1.967500,  1.972500,  1.977500,  1.982500,  1.987500,  1.992500,
  1.997500,  2.002500,  2.007500,  2.012500,  2.017500,  2.022500,  2.027500,
  2.032500,  2.037500,  2.042500,  2.047500,  2.052500,  2.057500,  2.062500,
  2.067500,  2.072500,  2.077500,  2.082500,  2.087500,  2.092500,  2.097500,
  2.102500,  2.107500,  2.112500,  2.117500,  2.122500,  2.127500,  2.132500,
  2.137500,  2.142500,  2.147500,  2.152500,  2.157500,  2.162500,  2.167500,
  2.172500,  2.177500,  2.182500,  2.187500,  2.192500,  2.197500,  2.202500,
  2.207500,  2.212500,  2.217500,  2.222500,  2.227500,  2.232500,  2.237500,
  2.242500,  2.247500,  2.252500,  2.257500,  2.262500,  2.267500,  2.272500,
  2.277500,  2.282500,  2.287500,  2.292500,  2.297500,  2.302500,  2.307500,
  2.312500,  2.317500,  2.322500,  2.327500,  2.332500,  2.337500,  2.342500,
  2.347500,  2.352500,  2.357500,  2.362500,  2.367500,  2.372500,  2.377500,
  2.382500,  2.387500,  2.392500,  2.397500,  2.402500,  2.407500,  2.412500,
  2.417500,  2.422500,  2.427500,  2.432500,  2.437500,  2.442500,  2.447500,
  2.452500,  2.457500,  2.462500,  2.467500,  2.472500,  2.477500,  2.482500,
  2.487500,  2.492500,  2.497500,  2.502500,  2.507500,  2.512500,  2.517500,
  2.522500,  2.527500,  2.532500,  2.537500,  2.542500,  2.547500,  2.552500,
  2.557500,  2.562500,  2.567500,  2.572500,  2.577500,  2.582500,  2.587500,
  2.592500,  2.597500,  2.602500,  2.607500,  2.612500,  2.617500,  2.622500,
  2.627500,  2.632500,  2.637500,  2.642500,  2.647500,  2.652500,  2.657500,
  2.662500,  2.667500,  2.672500,  2.677500,  2.682500,  2.687500,  2.692500,
  2.697500,  2.702500,  2.707500,  2.712500,  2.717500,  2.722500,  2.727500,
  2.732500,  2.737500,  2.742500,  2.747500,  2.752500,  2.757500,  2.762500,
  2.767500,  2.772500,  2.777500,  2.782500,  2.787500,  2.792500,  2.797500,
  2.802500,  2.807500,  2.812500,  2.817500,  2.822500,  2.827500,  2.832500,
  2.837500,  2.842500,  2.847500,  2.852500,  2.857500,  2.862500,  2.867500,
  2.872500,  2.877500,  2.882500,  2.887500,  2.892500,  2.897500,  2.902500,
  2.907500,  2.912500,  2.917500,  2.922500,  2.927500,  2.932500,  2.937500,
  2.942500,  2.947500,  2.952500,  2.957500,  2.962500,  2.967500,  2.972500,
  2.977500,  2.982500,  2.987500,  2.992500,  2.997500,  3.005000,  3.015000,
  3.025000,  3.035000,  3.045000,  3.055000,  3.065000,  3.075000,  3.085000,
  3.095000,  3.105000,  3.115000,  3.125000,  3.135000,  3.145000,  3.155000,
  3.165000,  3.175000,  3.185000,  3.195000,  3.205000,  3.215000,  3.225000,
  3.235000,  3.245000,  3.255000,  3.265000,  3.275000,  3.285000,  3.295000,
  3.305000,  3.315000,  3.325000,  3.335000,  3.345000,  3.355000,  3.365000,
  3.375000,  3.385000,  3.395000,  3.405000,  3.415000,  3.425000,  3.435000,
  3.445000,  3.455000,  3.465000,  3.475000,  3.485000,  3.495000,  3.505000,
  3.515000,  3.525000,  3.535000,  3.545000,  3.555000,  3.565000,  3.575000,
  3.585000,  3.595000,  3.605000,  3.615000,  3.625000,  3.635000,  3.645000,
  3.655000,  3.665000,  3.675000,  3.685000,  3.695000,  3.705000,  3.715000,
  3.725000,  3.735000,  3.745000,  3.755000,  3.765000,  3.775000,  3.785000,
  3.795000,  3.805000,  3.815000,  3.825000,  3.835000,  3.845000,  3.855000,
  3.865000,  3.875000,  3.885000,  3.895000,  3.905000,  3.915000,  3.925000,
  3.935000,  3.945000,  3.955000,  3.965000,  3.975000,  3.985000,  3.995000,
  4.005000,  4.015000,  4.025000,  4.035000,  4.045000,  4.055000,  4.065000,
  4.075000,  4.085000,  4.095000,  4.105000,  4.115000,  4.125000,  4.135000,
  4.145000,  4.155000,  4.165000,  4.175000,  4.185000,  4.195000,  4.205000,
  4.215000,  4.225000,  4.235000,  4.245000,  4.255000,  4.265000,  4.275000,
  4.285000,  4.295000,  4.305000,  4.315000,  4.325000,  4.335000,  4.345000,
  4.355000,  4.365000,  4.375000,  4.385000,  4.395000,  4.405000,  4.415000,
  4.425000,  4.435000,  4.445000,  4.455000,  4.465000,  4.475000,  4.485000,
  4.495000,  4.505000,  4.515000,  4.525000,  4.535000,  4.545000,  4.555000,
  4.565000,  4.575000,  4.585000,  4.595000,  4.605000,  4.615000,  4.625000,
  4.635000,  4.645000,  4.655000,  4.665000,  4.675000,  4.685000,  4.695000,
  4.705000,  4.715000,  4.725000,  4.735000,  4.745000,  4.755000,  4.765000,
  4.775000,  4.785000,  4.795000,  4.805000,  4.815000,  4.825000,  4.835000,
  4.845000,  4.855000,  4.865000,  4.875000,  4.885000,  4.895000,  4.905000,
  4.915000,  4.925000,  4.935000,  4.945000,  4.955000,  4.965000,  4.975000,
  4.985000,  4.995000,  5.005000,  5.015000,  5.025000,  5.035000,  5.045000,
  5.055000,  5.065000,  5.075000,  5.085000,  5.095000,  5.105000,  5.115000,
  5.125000,  5.135000,  5.145000,  5.155000,  5.165000,  5.175000,  5.185000,
  5.195000,  5.205000,  5.215000,  5.225000,  5.235000,  5.245000,  5.255000,
  5.265000,  5.275000,  5.285000,  5.295000,  5.305000,  5.315000,  5.325000,
  5.335000,  5.345000,  5.355000,  5.365000,  5.375000,  5.385000,  5.395000,
  5.405000,  5.415000,  5.425000,  5.435000,  5.445000,  5.455000,  5.465000,
  5.475000,  5.485000,  5.495000,  5.505000,  5.515000,  5.525000,  5.535000,
  5.545000,  5.555000,  5.565000,  5.575000,  5.585000,  5.595000,  5.605000,
  5.615000,  5.625000,  5.635000,  5.645000,  5.655000,  5.665000,  5.675000,
  5.685000,  5.695000,  5.705000,  5.715000,  5.725000,  5.735000,  5.745000,
  5.755000,  5.765000,  5.775000,  5.785000,  5.795000,  5.805000,  5.815000,
  5.825000,  5.835000,  5.845000,  5.855000,  5.865000,  5.875000,  5.885000,
  5.895000,  5.905000,  5.915000,  5.925000,  5.935000,  5.945000,  5.955000,
  5.965000,  5.975000,  5.985000,  5.995000,  6.005000,  6.015000,  6.025000,
  6.035000,  6.045000,  6.055000,  6.065000,  6.075000,  6.085000,  6.095000,
  6.105000,  6.115000,  6.125000,  6.135000,  6.145000,  6.155000,  6.165000,
  6.175000,  6.185000,  6.195000,  6.205000,  6.215000,  6.225000,  6.235000,
  6.245000,  6.255000,  6.265000,  6.275000,  6.285000,  6.295000,  6.305000,
  6.315000,  6.325000,  6.335000,  6.345000,  6.355000,  6.365000,  6.375000,
  6.385000,  6.395000,  6.405000,  6.415000,  6.425000,  6.435000,  6.445000,
  6.455000,  6.465000,  6.475000,  6.485000,  6.495000,  6.505000,  6.515000,
  6.525000,  6.535000,  6.545000,  6.555000,  6.565000,  6.575000,  6.585000,
  6.595000,  6.605000,  6.615000,  6.625000,  6.635000,  6.645000,  6.655000,
  6.665000,  6.675000,  6.685000,  6.695000,  6.705000,  6.715000,  6.725000,
  6.735000,  6.745000,  6.755000,  6.765000,  6.775000,  6.785000,  6.795000,
  6.805000,  6.815000,  6.825000,  6.835000,  6.845000,  6.855000,  6.865000,
  6.875000,  6.885000,  6.895000,  6.905000,  6.915000,  6.925000,  6.935000,
  6.945000,  6.955000,  6.965000,  6.975000,  6.985000,  6.995000,  7.005000,
  7.015000,  7.025000,  7.035000,  7.045000,  7.055000,  7.065000,  7.075000,
  7.085000,  7.095000,  7.105000,  7.115000,  7.125000,  7.135000,  7.145000,
  7.155000,  7.165000,  7.175000,  7.185000,  7.195000,  7.205000,  7.215000,
  7.225000,  7.235000,  7.245000,  7.255000,  7.265000,  7.275000,  7.285000,
  7.295000,  7.305000,  7.315000,  7.325000,  7.335000,  7.345000,  7.355000,
  7.365000,  7.375000,  7.385000,  7.395000,  7.405000,  7.415000,  7.425000,
  7.435000,  7.445000,  7.455000,  7.465000,  7.475000,  7.485000,  7.495000,
  7.505000,  7.515000,  7.525000,  7.535000,  7.545000,  7.555000,  7.565000,
  7.575000,  7.585000,  7.595000,  7.605000,  7.615000,  7.625000,  7.635000,
  7.645000,  7.655000,  7.665000,  7.675000,  7.685000,  7.695000,  7.705000,
  7.715000,  7.725000,  7.735000,  7.745000,  7.755000,  7.765000,  7.775000,
  7.785000,  7.795000,  7.805000,  7.815000,  7.825000,  7.835000,  7.845000,
  7.855000,  7.865000,  7.875000,  7.885000,  7.895000,  7.905000,  7.915000,
  7.925000,  7.935000,  7.945000,  7.955000,  7.965000,  7.975000,  7.985000,
  7.995000,  8.005000,  8.015000,  8.025000,  8.035000,  8.045000,  8.055000,
  8.065000,  8.075000,  8.085000,  8.095000,  8.105000,  8.115000,  8.125000,
  8.135000,  8.145000,  8.155000,  8.165000,  8.175000,  8.185000,  8.195000,
  8.205000,  8.215000,  8.225000,  8.235000,  8.245000,  8.255000,  8.265000,
  8.275000,  8.285000,  8.295000,  8.305000,  8.315000,  8.325000,  8.335000,
  8.345000,  8.355000,  8.365000,  8.375000,  8.385000,  8.395000,  8.405000,
  8.415000,  8.425000,  8.435000,  8.445000,  8.455000,  8.465000,  8.475000,
  8.485000,  8.495000,  8.505000,  8.515000,  8.525000,  8.535000,  8.545000,
  8.555000,  8.565000,  8.575000,  8.585000,  8.595000,  8.605000,  8.615000,
  8.625000,  8.635000,  8.645000,  8.655000,  8.665000,  8.675000,  8.685000,
  8.695000,  8.705000,  8.715000,  8.725000,  8.735000,  8.745000,  8.755000,
  8.765000,  8.775000,  8.785000,  8.795000,  8.805000,  8.815000,  8.825000,
  8.835000,  8.845000,  8.855000,  8.865000,  8.875000,  8.885000,  8.895000,
  8.905000,  8.915000,  8.925000,  8.935000,  8.945000,  8.955000,  8.965000,
  8.975000,  8.985000,  8.995000,  9.005000,  9.015000,  9.025000,  9.035000,
  9.045000,  9.055000,  9.065000,  9.075000,  9.085000,  9.095000,  9.105000,
  9.115000,  9.125000,  9.135000,  9.145000,  9.155000,  9.165000,  9.175000,
  9.185000,  9.195000,  9.205000,  9.215000,  9.225000,  9.235000,  9.245000,
  9.255000,  9.265000,  9.275000,  9.285000,  9.295000,  9.305000,  9.315000,
  9.325000,  9.335000,  9.345000,  9.355000,  9.365000,  9.375000,  9.385000,
  9.395000,  9.405000,  9.415000,  9.425000,  9.435000,  9.445000,  9.455000,
  9.465000,  9.475000,  9.485000,  9.495000,  9.505000,  9.515000,  9.525000,
  9.535000,  9.545000,  9.555000,  9.565000,  9.575000,  9.585000,  9.595000,
  9.605000,  9.615000,  9.625000,  9.635000,  9.645000,  9.655000,  9.665000,
  9.675000,  9.685000,  9.695000,  9.705000,  9.715000,  9.725000,  9.735000,
  9.745000,  9.755000,  9.765000,  9.775000,  9.785000,  9.795000,  9.805000,
  9.815000,  9.825000,  9.835000,  9.845000,  9.855000,  9.865000,  9.875000,
  9.885000,  9.895000,  9.905000,  9.915000,  9.925000,  9.935000,  9.945000,
  9.955000,  9.965000,  9.975000,  9.985000,  9.995000, 10.025000, 10.075000,
 10.125000, 10.175000, 10.225000, 10.275000, 10.325000, 10.375000, 10.425000,
 10.475000, 10.525000, 10.575000, 10.625000, 10.675000, 10.725000, 10.775000,
 10.825000, 10.875000, 10.925000, 10.975000, 11.025000, 11.075000, 11.125000,
 11.175000, 11.225000, 11.275000, 11.325000, 11.375000, 11.425000, 11.475000,
 11.525000, 11.575000, 11.625000, 11.675000, 11.725000, 11.775000, 11.825000,
 11.875000, 11.925000, 11.975000, 12.025000, 12.075000, 12.125000, 12.175000,
 12.225000, 12.275000, 12.325000, 12.375000, 12.425000, 12.475000, 12.525000,
 12.575000, 12.625000, 12.675000, 12.725000, 12.775000, 12.825000, 12.875000,
 12.925000, 12.975000, 13.025000, 13.075000, 13.125000, 13.175000, 13.225000,
 13.275000, 13.325000, 13.375000, 13.425000, 13.475000, 13.525000, 13.575000,
 13.625000, 13.675000, 13.725000, 13.775000, 13.825000, 13.875000, 13.925000,
 13.975000, 14.025000, 14.075000, 14.125000, 14.175000, 14.225000, 14.275000,
 14.325000, 14.375000, 14.425000, 14.475000, 14.525000, 14.575000, 14.625000,
 14.675000, 14.725000, 14.775000, 14.825000, 14.875000, 14.925000, 14.975000,
 15.025000, 15.075000, 15.125000, 15.175000, 15.225000, 15.275000, 15.325000,
 15.375000, 15.425000, 15.475000, 15.525000, 15.575000, 15.625000, 15.675000,
 15.725000, 15.775000, 15.825000, 15.875000, 15.925000, 15.975000, 16.025000,
 16.075001, 16.125000, 16.174999, 16.225000, 16.275000, 16.325001, 16.375000,
 16.424999, 16.475000, 16.525000, 16.575001, 16.625000, 16.674999, 16.725000,
 16.775000, 16.825001, 16.875000, 16.924999, 16.975000, 17.025000, 17.075001,
 17.125000, 17.174999, 17.225000, 17.275000, 17.325001, 17.375000, 17.424999,
 17.475000, 17.525000, 17.575001, 17.625000, 17.674999, 17.725000, 17.775000,
 17.825001, 17.875000, 17.924999, 17.975000, 18.025000, 18.075001, 18.125000,
 18.174999, 18.225000, 18.275000, 18.325001, 18.375000, 18.424999, 18.475000,
 18.525000, 18.575001, 18.625000, 18.674999, 18.725000, 18.775000, 18.825001,
 18.875000, 18.924999, 18.975000, 19.025000, 19.075001, 19.125000, 19.174999,
 19.225000, 19.275000, 19.325001, 19.375000, 19.424999, 19.475000, 19.525000,
 19.575001, 19.625000, 19.674999, 19.725000, 19.775000, 19.825001, 19.875000,
 19.924999, 19.975000, 20.025000}
